Data from Reflection_11-17-15-736.txt Node
Date: Fri Mar 08 11:17:15 EST 2024
User: zxiong
Spectrometer: USB4F04538
Trigger mode: 4
Integration Time (sec): 1.000000E0
Scans to average: 1
Electric dark correction enabled: true
Nonlinearity correction enabled: false
Boxcar width: 0
XAxis mode: Wavelengths
Number of Pixels in Spectrum: 3648
>>>>>Begin Spectral Data<<<<<
345.52	554.55
345.736	554.55
345.952	554.55
346.168	764.34
346.384	191.89
346.6	-171.86
346.816	-107.1
347.032	85.57
347.248	494.5
347.464	-360.87
347.68	130.25
347.896	345.71
348.112	52.96
348.328	170.42
348.544	532.2
348.76	82.97
348.975	-424.32
349.191	-305.92
349.407	32.37
349.623	391.71
349.839	391.08
350.055	-52
350.27	316.33
350.486	176.02
350.702	127.88
350.918	84.32
351.133	71.43
351.349	127.89
351.565	97.67
351.781	23.56
351.996	144.53
352.212	110.66
352.428	-610.18
352.644	66.46
352.859	-38.59
353.075	189.33
353.291	178.76
353.506	210.88
353.722	72.38
353.938	290.31
354.153	115.24
354.369	1676
354.584	79.4
354.8	127.03
355.016	268.32
355.231	-234.27
355.447	233.55
355.662	1179.34
355.878	35.85
356.093	125.62
356.309	554.55
356.524	414.88
356.74	192.2
356.955	28.81
357.171	453.85
357.386	163.28
357.602	270.55
357.817	83.08
358.033	163.54
358.248	158.08
358.464	288.31
358.679	78.96
358.895	66.52
359.11	253.92
359.325	-40.78
359.541	924.51
359.756	76.81
359.972	-6645.45
360.187	552.28
360.402	53.27
360.618	75.26
360.833	365.03
361.048	276.33
361.264	-57.4
361.479	133.49
361.694	186.61
361.909	109.66
362.125	154.92
362.34	49.27
362.555	118.65
362.77	170.22
362.986	-81.68
363.201	26.06
363.416	212.47
363.631	219.72
363.847	53
364.062	-109.56
364.277	91.4
364.492	57.49
364.707	-235.96
364.922	128.94
365.138	199.38
365.353	114.21
365.568	148.28
365.783	150.65
365.998	394.35
366.213	159.69
366.428	33.67
366.643	160.78
366.858	131.35
367.073	153.32
367.288	67.3
367.503	133.98
367.718	122.65
367.933	169.94
368.148	89.9
368.363	144.25
368.578	402.64
368.793	153.14
369.008	118.18
369.223	-2708.7
369.438	173.54
369.653	66.48
369.868	168.51
370.083	81.95
370.298	150.94
370.513	123.51
370.728	108.32
370.943	29.99
371.157	212.48
371.372	174.19
371.587	-113.75
371.802	64.3
372.017	92.63
372.232	126.49
372.446	153.63
372.661	88.99
372.876	-2936.36
373.091	234.94
373.306	57.17
373.52	10.18
373.735	163.22
373.95	196.88
374.165	236.76
374.379	78.24
374.594	140.49
374.809	206.76
375.023	85.26
375.238	90.33
375.453	360.05
375.667	343.03
375.882	92.2
376.097	104.96
376.311	94.45
376.526	171.07
376.741	25.87
376.955	271.73
377.17	81.56
377.384	176.67
377.599	144.24
377.813	20.16
378.028	132.51
378.242	143.72
378.457	73.87
378.672	125.12
378.886	92.63
379.101	139.55
379.315	53.71
379.53	72.79
379.744	130.73
379.958	53.48
380.173	65.61
380.387	83.5
380.602	178.54
380.816	222.09
381.031	130.83
381.245	51.84
381.459	93.58
381.674	6426.03
381.888	12.04
382.103	113.79
382.317	87.95
382.531	82.64
382.746	86.52
382.96	55.25
383.174	98.95
383.388	102.7
383.603	68.26
383.817	75.33
384.031	39.03
384.246	14.46
384.46	73.85
384.674	216.8
384.888	57.71
385.103	104.79
385.317	64.16
385.531	64.02
385.745	212.75
385.959	104.12
386.174	53.58
386.388	88.52
386.602	82.52
386.816	118.39
387.03	43.41
387.244	214.04
387.458	170.42
387.672	47.96
387.887	57.83
388.101	127.81
388.315	88.26
388.529	107.96
388.743	49.81
388.957	48.03
389.171	124.65
389.385	89.28
389.599	-32.52
389.813	54.5
390.027	140.65
390.241	114.7
390.455	100.65
390.669	96
390.883	69.46
391.097	120.56
391.311	80.5
391.525	54.2
391.738	131.05
391.952	116.76
392.166	165.14
392.38	33.48
392.594	82.45
392.808	19.47
393.022	35.74
393.236	26.82
393.449	59.34
393.663	75.38
393.877	35.89
394.091	51.97
394.305	94.18
394.518	89.39
394.732	57.62
394.946	70.27
395.16	110.88
395.373	106.13
395.587	75.83
395.801	97.7
396.015	29.22
396.228	66.05
396.442	44.23
396.656	62.02
396.869	62.13
397.083	109.1
397.297	15.19
397.51	79.06
397.724	86.35
397.938	117.7
398.151	59.19
398.365	74.3
398.578	87.94
398.792	104.77
399.005	83.34
399.219	53.34
399.433	65.24
399.646	145.25
399.86	78.24
400.073	88.55
400.287	93.77
400.5	141.23
400.714	84.56
400.927	40.3
401.141	126.72
401.354	169.33
401.567	108.44
401.781	56.09
401.994	89.23
402.208	120.37
402.421	92.59
402.635	58.66
402.848	84.52
403.061	82.81
403.275	68.07
403.488	85
403.701	94.03
403.915	146.83
404.128	81.52
404.341	68.7
404.555	74.91
404.768	59.31
404.981	89.19
405.195	78.71
405.408	51.34
405.621	84.94
405.834	66.32
406.048	78.9
406.261	79.08
406.474	69.64
406.687	19.65
406.9	66.93
407.114	115.01
407.327	118.18
407.54	70.81
407.753	65.61
407.966	109.69
408.179	51.94
408.392	69.06
408.605	57.61
408.819	85.5
409.032	107.23
409.245	73.94
409.458	69.11
409.671	68.27
409.884	73.3
410.097	43.78
410.31	54.62
410.523	85.22
410.736	72.21
410.949	91.81
411.162	42.48
411.375	53.4
411.588	66.75
411.801	75.5
412.014	63.56
412.227	51.11
412.44	83.04
412.653	49.5
412.865	69.81
413.078	116.12
413.291	91.09
413.504	67.07
413.717	63.01
413.93	61.83
414.143	78.46
414.356	75.87
414.568	66.88
414.781	63.57
414.994	81.86
415.207	46.36
415.42	52.14
415.632	69.3
415.845	66.13
416.058	51.21
416.271	48.03
416.483	76.55
416.696	65
416.909	41.62
417.121	59.71
417.334	63.98
417.547	44.28
417.759	46.51
417.972	43.97
418.185	59.04
418.397	47.61
418.61	48.51
418.823	40.42
419.035	84.4
419.248	51.86
419.46	58.15
419.673	57.73
419.885	53.49
420.098	73.09
420.311	56.41
420.523	52.13
420.736	66.44
420.948	77.44
421.161	62.65
421.373	49.96
421.586	57.76
421.798	55.08
422.01	66.41
422.223	63.18
422.435	43.29
422.648	60.74
422.86	39.62
423.073	42.43
423.285	42.43
423.497	42.25
423.71	50.34
423.922	57.9
424.134	104.35
424.347	63.37
424.559	46.16
424.771	50.26
424.984	79.73
425.196	57.15
425.408	43.48
425.621	62.34
425.833	40.65
426.045	56.08
426.257	41.54
426.47	47.68
426.682	41.71
426.894	46.85
427.106	43.06
427.318	46.65
427.531	51.39
427.743	46.04
427.955	67.51
428.167	64.36
428.379	53.02
428.591	51.56
428.804	47.31
429.016	46.38
429.228	51.73
429.44	60.12
429.652	33.78
429.864	22.77
430.076	53.83
430.288	53.79
430.5	35.61
430.712	42.34
430.924	33.87
431.136	48.06
431.348	32.75
431.56	28.2
431.772	42.79
431.984	46.57
432.196	37.69
432.408	38.39
432.62	49.85
432.832	56.34
433.044	48.57
433.256	43.33
433.468	56.34
433.679	48.95
433.891	28.35
434.103	34.7
434.315	44.29
434.527	36.93
434.739	39.31
434.95	52.15
435.162	41.32
435.374	44.25
435.586	47.53
435.798	32.09
436.009	56
436.221	50.85
436.433	50.75
436.645	40.75
436.856	44.97
437.068	54.76
437.28	45.62
437.491	42.99
437.703	51.5
437.915	55.82
438.126	26.74
438.338	62.75
438.55	40.67
438.761	38.55
438.973	37.11
439.184	40.43
439.396	42.31
439.608	45.01
439.819	31.25
440.031	45.34
440.242	47.69
440.454	43.95
440.665	41.35
440.877	41.76
441.088	50.42
441.3	52.07
441.511	40.45
441.723	48.86
441.934	66.02
442.146	48.38
442.357	43.29
442.569	46.4
442.78	57.22
442.991	56.6
443.203	53.97
443.414	32.46
443.626	47.97
443.837	45.23
444.048	37.73
444.26	43.61
444.471	50.71
444.682	37.77
444.894	42
445.105	44
445.316	52.45
445.528	29.27
445.739	45.76
445.95	34.6
446.161	42.82
446.373	44.41
446.584	40.62
446.795	43.99
447.006	43.66
447.217	39.95
447.429	41.69
447.64	34.92
447.851	66.08
448.062	56.19
448.273	36.75
448.484	45.26
448.695	40.36
448.907	51.13
449.118	44.52
449.329	47.23
449.54	46.01
449.751	47.81
449.962	37.95
450.173	39.13
450.384	51.07
450.595	39.01
450.806	35.55
451.017	46.43
451.228	44.54
451.439	44.86
451.65	44.51
451.861	36.81
452.072	45.38
452.283	45.28
452.494	32.85
452.705	38.49
452.915	50.85
453.126	45
453.337	43.04
453.548	38.83
453.759	52.61
453.97	38.03
454.181	43.58
454.391	35.69
454.602	39.29
454.813	50.17
455.024	33.99
455.235	37.61
455.445	47.72
455.656	40.68
455.867	34.89
456.078	36.91
456.288	40.47
456.499	35.73
456.71	40.26
456.921	43
457.131	41.54
457.342	35.65
457.553	38.61
457.763	45.32
457.974	33.83
458.184	32.48
458.395	36.68
458.606	26.92
458.816	39.87
459.027	35.65
459.237	34.72
459.448	42.89
459.659	37.06
459.869	46.5
460.08	33.04
460.29	36.09
460.501	37.7
460.711	42.56
460.922	30.91
461.132	37.99
461.343	48.18
461.553	37.17
461.764	36.97
461.974	31.28
462.184	36.39
462.395	39.57
462.605	37.89
462.816	32.69
463.026	45.2
463.236	37.56
463.447	42.01
463.657	32.68
463.867	41.47
464.078	37.8
464.288	32.47
464.498	36.62
464.709	35.81
464.919	40.67
465.129	35.2
465.339	28.16
465.55	36.1
465.76	40.78
465.97	36.19
466.18	31.84
466.391	31.48
466.601	37.71
466.811	30.18
467.021	29.06
467.231	32.42
467.441	30.88
467.651	29.98
467.862	26.67
468.072	32.28
468.282	27.74
468.492	28.32
468.702	33.02
468.912	38.32
469.122	35.51
469.332	31.63
469.542	30.81
469.752	35.41
469.962	30.8
470.172	26.79
470.382	27.88
470.592	32.14
470.802	28.88
471.012	28.66
471.222	29.88
471.432	31.84
471.642	30.78
471.852	32.64
472.062	32.36
472.272	34.78
472.482	37.09
472.691	32.25
472.901	31.52
473.111	30.31
473.321	32.09
473.531	30.46
473.741	30.8
473.95	32.64
474.16	31.25
474.37	30.18
474.58	29.88
474.79	34.23
474.999	27.34
475.209	29.41
475.419	28.64
475.628	29.25
475.838	31.21
476.048	27.92
476.258	27.44
476.467	29.39
476.677	28.56
476.886	28.86
477.096	28.67
477.306	31.71
477.515	29.86
477.725	31.87
477.935	27.14
478.144	32.81
478.354	30.85
478.563	28.39
478.773	24.44
478.982	27.71
479.192	26.43
479.401	26.4
479.611	29.61
479.82	30.09
480.03	27.79
480.239	26.92
480.449	28.85
480.658	29.17
480.868	31.36
481.077	26.13
481.287	28.82
481.496	25.88
481.705	30.11
481.915	28.8
482.124	27.47
482.333	28.93
482.543	27.47
482.752	26.19
482.961	26.52
483.171	27.48
483.38	26.54
483.589	26.37
483.799	25.39
484.008	27.87
484.217	25.24
484.426	21.99
484.636	23.9
484.845	26.52
485.054	27.52
485.263	24.1
485.472	21.74
485.682	21.66
485.891	20.78
486.1	22.55
486.309	19.49
486.518	22.45
486.727	24.36
486.936	19.53
487.146	22.87
487.355	22.62
487.564	24.87
487.773	22.4
487.982	24.13
488.191	24.57
488.4	26.32
488.609	22.42
488.818	23.56
489.027	24.77
489.236	26.51
489.445	22.21
489.654	22.13
489.863	24.91
490.072	26.25
490.281	26.54
490.49	24.08
490.698	21.63
490.907	24.68
491.116	22.38
491.325	22.14
491.534	21.14
491.743	21.6
491.952	22.3
492.16	21.4
492.369	24.71
492.578	21.61
492.787	23.73
492.996	19.21
493.204	23.16
493.413	22.98
493.622	21.95
493.831	21.09
494.039	24.4
494.248	26.27
494.457	21.74
494.665	21.57
494.874	23
495.083	24.29
495.291	23.34
495.5	21.62
495.709	23.14
495.917	22.32
496.126	22.2
496.335	22.89
496.543	23.21
496.752	22.83
496.96	24.05
497.169	20.66
497.377	23.33
497.586	22.55
497.794	22.67
498.003	20.48
498.211	22.18
498.42	20.03
498.628	20.07
498.837	20.51
499.045	21.65
499.254	20.61
499.462	22.07
499.671	21.63
499.879	25.73
500.087	20.03
500.296	19.36
500.504	20.88
500.713	21.02
500.921	20.22
501.129	20.48
501.338	19.68
501.546	19.8
501.754	21.34
501.962	20.02
502.171	19.85
502.379	20.88
502.587	21.77
502.795	19.46
503.004	20.46
503.212	23.31
503.42	22.5
503.628	20.62
503.837	20.32
504.045	21.91
504.253	23.32
504.461	20.14
504.669	19.82
504.877	23.19
505.085	20.59
505.294	20.9
505.502	22.38
505.71	24.98
505.918	22.55
506.126	21.02
506.334	21.36
506.542	23.4
506.75	21.71
506.958	21.51
507.166	20.47
507.374	21.44
507.582	21.5
507.79	21.04
507.998	20.83
508.206	22.56
508.414	23.53
508.622	20.71
508.83	22.01
509.037	23.09
509.245	22.86
509.453	21.92
509.661	22
509.869	24.4
510.077	23.35
510.285	21.45
510.492	20.82
510.7	21.89
510.908	24.82
511.116	24.71
511.324	21.32
511.531	22.6
511.739	24.12
511.947	22.9
512.155	21.72
512.362	24.89
512.57	23.26
512.778	20.03
512.985	21.85
513.193	22.74
513.401	24.57
513.608	23.23
513.816	22.2
514.024	22.57
514.231	21.66
514.439	22.43
514.646	23.98
514.854	24.21
515.061	22.71
515.269	24.16
515.477	23.06
515.684	24.91
515.892	24.13
516.099	23.05
516.307	23.26
516.514	22.72
516.722	23
516.929	21.32
517.136	21.07
517.344	21.82
517.551	23.58
517.759	22.59
517.966	21.69
518.173	24.1
518.381	23.98
518.588	23.18
518.796	22.74
519.003	23.97
519.21	25.03
519.418	23.7
519.625	25.48
519.832	28.32
520.039	28.13
520.247	25.75
520.454	26.18
520.661	26.9
520.868	28.05
521.076	26.99
521.283	26.8
521.49	27.89
521.697	27.45
521.904	27.6
522.112	27.79
522.319	28.55
522.526	28.2
522.733	27.06
522.94	28.53
523.147	28.83
523.354	27.8
523.561	28.86
523.768	26.82
523.975	29.24
524.183	30.15
524.39	31.79
524.597	30
524.804	30.04
525.011	31.18
525.218	30.06
525.425	29.04
525.632	30.33
525.838	30.63
526.045	30.32
526.252	28.94
526.459	30.41
526.666	29.87
526.873	27.87
527.08	28.53
527.287	29.64
527.494	29.76
527.701	27.1
527.907	29.22
528.114	29.92
528.321	32.54
528.528	30.82
528.735	31.12
528.941	33.01
529.148	34.13
529.355	31.23
529.562	32.24
529.768	33.95
529.975	32.48
530.182	32.08
530.388	33.12
530.595	34.27
530.802	33.69
531.008	34.34
531.215	34.3
531.422	30.33
531.628	35.17
531.835	32.54
532.042	33.33
532.248	32.83
532.455	31.61
532.661	30.24
532.868	30.56
533.074	33.27
533.281	31.49
533.487	30.91
533.694	31.73
533.9	33.93
534.107	32.01
534.313	33.18
534.52	32.24
534.726	32.98
534.933	35.25
535.139	34.81
535.345	33.52
535.552	36.29
535.758	35.13
535.965	33.01
536.171	34.18
536.377	33.19
536.584	34.31
536.79	32.02
536.996	33.21
537.203	33.97
537.409	35.07
537.615	33.43
537.821	31.95
538.028	34.16
538.234	33.68
538.44	33.5
538.646	33.18
538.853	33.29
539.059	32.35
539.265	31.96
539.471	32.84
539.677	30.84
539.883	33.55
540.09	31.6
540.296	33.04
540.502	31.57
540.708	31.4
540.914	32.85
541.12	31.93
541.326	31.69
541.532	33.04
541.738	32.33
541.944	32.86
542.15	32.9
542.356	33.71
542.562	31.87
542.768	31.63
542.974	31.13
543.18	34.42
543.386	31.96
543.592	31.26
543.798	34.84
544.004	33.14
544.21	31.05
544.415	32.9
544.621	32.78
544.827	33.88
545.033	32.57
545.239	32.75
545.445	32.54
545.651	32.91
545.856	31.77
546.062	32.71
546.268	32.9
546.474	32.15
546.679	32.16
546.885	31.51
547.091	33.15
547.297	33.96
547.502	32.47
547.708	30.99
547.914	32.76
548.119	33.41
548.325	31.39
548.531	31.3
548.736	32.1
548.942	31.44
549.147	31.43
549.353	31.47
549.559	31.87
549.764	33.11
549.97	31.74
550.175	31.53
550.381	32.09
550.586	32.29
550.792	31.02
550.997	30.81
551.203	32.56
551.408	34.08
551.614	30.9
551.819	31.89
552.025	32.61
552.23	30.63
552.435	30.15
552.641	31.37
552.846	31.18
553.052	32.07
553.257	31.19
553.462	30.66
553.668	31.61
553.873	30.24
554.078	30.19
554.283	31.34
554.489	32.4
554.694	31.29
554.899	29.98
555.105	31.05
555.31	31.35
555.515	30.8
555.72	30.63
555.925	30.72
556.131	30.78
556.336	31.06
556.541	29.65
556.746	30.08
556.951	29.81
557.156	29.71
557.361	29.22
557.567	29.49
557.772	29.93
557.977	29.73
558.182	28.32
558.387	28
558.592	28.59
558.797	28.01
559.002	27.72
559.207	27.99
559.412	30.21
559.617	29.12
559.822	27.96
560.027	28.32
560.232	27.97
560.437	29.23
560.642	27.86
560.847	28.2
561.051	28.55
561.256	28.49
561.461	27.22
561.666	27.31
561.871	28.64
562.076	27.89
562.281	26.84
562.485	26.63
562.69	28.4
562.895	27.81
563.1	27.7
563.305	27.13
563.509	26.82
563.714	26.44
563.919	26.22
564.123	26.21
564.328	27.07
564.533	27.25
564.737	26.37
564.942	26.6
565.147	26.27
565.351	25.14
565.556	24.6
565.761	25.31
565.965	25.91
566.17	25.05
566.374	24.96
566.579	24.08
566.784	25.27
566.988	25.54
567.193	23.44
567.397	24.98
567.602	26.1
567.806	24.97
568.011	24.21
568.215	23.93
568.42	24.38
568.624	24.63
568.828	23.7
569.033	22.57
569.237	24.08
569.442	23.99
569.646	23.51
569.85	22.79
570.055	24.22
570.259	23.32
570.463	22.79
570.668	20.96
570.872	22.87
571.076	22.09
571.281	21.81
571.485	20.46
571.689	22.68
571.893	22.04
572.098	21.96
572.302	20.69
572.506	21.65
572.71	22.4
572.914	21.66
573.119	21.44
573.323	22.59
573.527	22.66
573.731	21.14
573.935	20.74
574.139	20.92
574.343	22.43
574.547	20.4
574.751	20.75
574.955	20.55
575.159	20.27
575.364	18.86
575.568	20.19
575.772	19.84
575.976	19.76
576.18	19.31
576.383	19.31
576.587	19.19
576.791	20.51
576.995	19.74
577.199	18.85
577.403	19.7
577.607	19.06
577.811	18.37
578.015	18.25
578.219	18.94
578.422	18.57
578.626	18.28
578.83	18.4
579.034	19.83
579.238	19.86
579.442	18.02
579.645	18.59
579.849	19.07
580.053	18.81
580.257	19.34
580.46	19.09
580.664	18.68
580.868	18.62
581.071	18.38
581.275	18.4
581.479	18.53
581.682	19.27
581.886	17.59
582.09	18.05
582.293	18.59
582.497	18.45
582.7	17.87
582.904	17.1
583.107	19.78
583.311	18.59
583.515	18.24
583.718	18.05
583.922	18.14
584.125	18.04
584.329	17.42
584.532	17.97
584.735	17.74
584.939	18.27
585.142	17.14
585.346	17.43
585.549	16.74
585.753	17.51
585.956	15.88
586.159	16.79
586.363	17.95
586.566	16.4
586.769	17.07
586.973	16.19
587.176	17.17
587.379	17.11
587.582	15.78
587.786	16.32
587.989	16.9
588.192	17
588.395	16.51
588.599	15.69
588.802	15.32
589.005	14.38
589.208	14.83
589.411	14.81
589.615	14.32
589.818	14.38
590.021	14.98
590.224	15.62
590.427	16.78
590.63	15.53
590.833	15.49
591.036	14.51
591.239	15.88
591.442	16.21
591.645	15.58
591.848	14.89
592.051	15.33
592.254	15.55
592.457	15.63
592.66	15.38
592.863	15.22
593.066	16.06
593.269	14.6
593.472	14.56
593.675	14.93
593.878	14.57
594.081	14.49
594.284	13.98
594.486	14.92
594.689	14.73
594.892	13.66
595.095	14.5
595.298	14.62
595.5	14.87
595.703	14.65
595.906	14.43
596.109	14.6
596.311	14.46
596.514	14.5
596.717	14.28
596.92	14.84
597.122	15.19
597.325	14.12
597.528	13.73
597.73	14.43
597.933	14.62
598.136	14.1
598.338	13.69
598.541	13.9
598.743	13.78
598.946	13.92
599.148	13.78
599.351	13.98
599.554	13.2
599.756	14.34
599.959	13.63
600.161	14.09
600.363	14.93
600.566	13.66
600.768	13.36
600.971	13.47
601.173	13.45
601.376	12.48
601.578	13.1
601.78	13.41
601.983	12.84
602.185	12.59
602.388	13.29
602.59	12.79
602.792	13.98
602.995	13.49
603.197	13.63
603.399	13.11
603.601	14.21
603.804	13.28
604.006	13.06
604.208	13
604.41	13.13
604.613	12.85
604.815	12.49
605.017	13.28
605.219	13.22
605.421	12.95
605.623	12.49
605.826	13.26
606.028	13.7
606.23	12.95
606.432	12.45
606.634	12.99
606.836	12.08
607.038	12.13
607.24	12.32
607.442	12.5
607.644	13.3
607.846	12.21
608.048	11.98
608.25	12.71
608.452	11.99
608.654	12.52
608.856	10.96
609.058	12.26
609.26	12.71
609.462	11.51
609.664	11.41
609.866	13.23
610.067	11.94
610.269	11.21
610.471	11.55
610.673	12.05
610.875	11.7
611.077	11.49
611.278	11.84
611.48	12.28
611.682	11.83
611.884	11.15
612.085	11.31
612.287	11.76
612.489	10.23
612.69	10.98
612.892	10.76
613.094	11.35
613.295	11.24
613.497	10.76
613.699	10.81
613.9	11.11
614.102	10.88
614.304	10.63
614.505	10.55
614.707	11.24
614.908	11.96
615.11	10.66
615.311	11.43
615.513	11.03
615.714	10.92
615.916	10.3
616.117	10.1
616.319	10.82
616.52	10.81
616.722	10.18
616.923	9.58
617.124	10.68
617.326	10.06
617.527	11.21
617.729	10.14
617.93	11.14
618.131	10.37
618.333	10.35
618.534	10.08
618.735	10.72
618.937	10.57
619.138	9.65
619.339	9.78
619.54	10.58
619.742	10.3
619.943	9.93
620.144	10.42
620.345	10.42
620.546	10.04
620.748	9.92
